Energy_keV Counts
-0.338 0
-0.125 0
0.087 0
0.300 0
0.513 0
0.725 3034
0.938 2242
1.150 1596
1.363 980
1.576 615
1.788 306
2.001 173
2.214 65
2.426 30
2.639 14
2.852 8
3.064 3
3.277 3
3.490 9
3.702 8
3.915 12
4.128 15
4.340 12
4.553 18
4.766 18
4.978 24
5.191 35
5.404 48
5.616 57
5.829 73
6.042 113
6.254 181
6.467 270
6.680 392
6.892 555
7.105 827
7.318 1116
7.530 1492
7.743 1784
7.956 1949
8.168 2084
8.381 1893
8.594 1747
8.806 1528
9.019 1213
9.232 947
9.444 708
9.657 560
9.870 454
10.082 390
10.295 296
10.508 277
10.720 264
10.933 242
11.146 228
11.358 227
11.571 234
11.784 231
11.996 254
12.209 287
12.422 340
12.634 349
12.847 401
13.060 447
13.272 449
13.485 411
13.698 392
13.910 371
14.123 327
14.336 323
14.548 252
14.761 250
14.974 245
15.186 251
15.399 255
15.611 295
15.824 364
16.037 389
16.249 523
16.462 519
16.675 601
16.887 628
17.100 638
17.313 637
17.525 546
17.738 547
17.951 417
18.163 365
18.376 304
18.589 258
18.801 251
19.014 218
19.227 223
19.439 227
19.652 247
19.865 268
20.077 293
20.290 256
20.503 231
20.715 240
20.928 213
21.141 189
21.353 181
21.566 171
21.779 118
21.991 126
22.204 119
22.417 89
22.629 83
22.842 96
23.055 112
23.267 121
23.480 107
23.693 118
23.905 157
24.118 172
24.331 193
24.543 201
24.756 214
24.969 217
25.181 226
25.394 203
25.607 221
25.819 175
26.032 189
26.245 169
26.457 134
26.670 156
26.883 125
27.095 103
27.308 94
27.521 98
27.733 78
27.946 65
28.159 86
28.371 61
28.584 80
28.797 81
29.009 73
29.222 53
29.435 89
29.647 99
29.860 87
30.072 70
30.285 68
30.498 60
30.710 77
30.923 85
31.136 72
31.348 79
31.561 91
31.774 81
31.986 78
32.199 95
32.412 99
32.624 78
32.837 89
33.050 95
33.262 103
33.475 92
33.688 76
33.900 76
34.113 85
34.326 101
34.538 85
34.751 90
34.964 100
35.176 89
35.389 107
35.602 99
35.814 115
36.027 121
36.240 135
36.452 131
36.665 149
36.878 135
37.090 144
37.303 166
37.516 162
37.728 169
37.941 216
38.154 183
38.366 205
38.579 207
38.792 251
39.004 246
39.217 270
39.430 287
39.642 319
39.855 315
40.068 345
40.280 325
40.493 371
40.706 392
40.918 446
41.131 454
41.344 476
41.556 475
41.769 548
41.982 560
42.194 586
42.407 621
42.620 731
42.832 690
43.045 752
43.258 669
43.470 719
43.683 758
43.895 802
44.108 844
44.321 856
44.533 839
44.746 887
44.959 930
45.171 934
45.384 950
45.597 985
45.809 1003
46.022 1000
46.235 1036
46.447 1098
46.660 1172
46.873 1224
47.085 1266
47.298 1286
47.511 1390
47.723 1485
47.936 1580
48.149 1715
48.361 1909
48.574 2081
48.787 2311
48.999 2456
49.212 2625
49.425 2901
49.637 3158
49.850 3317
50.063 3526
50.275 3679
50.488 3834
50.701 3898
50.913 4095
51.126 4013
51.339 4356
51.551 4397
51.764 4561
51.977 4470
52.189 4697
52.402 4679
52.615 4857
52.827 4846
53.040 4760
53.253 4831
53.465 5038
53.678 5060
53.891 5133
54.103 5186
54.316 5114
54.529 5240
54.741 5123
54.954 5115
55.167 4944
55.379 4850
55.592 4788
55.805 4605
56.017 4367
56.230 4248
56.443 4019
56.655 3866
56.868 3676
57.081 3434
57.293 3217
57.506 3169
57.719 3134
57.931 3107
58.144 3377
58.356 3718
58.569 4282
58.782 4895
58.994 5371
59.207 5435
59.420 5316
59.632 5088
59.845 4283
60.058 3256
60.270 2421
60.483 1671
60.696 993
60.908 672
61.121 427
61.334 289
61.546 219
61.759 165
61.972 168
62.184 149
62.397 125
62.610 146
62.822 143
63.035 166
63.248 158
63.460 160
63.673 159
63.886 146
64.098 159
64.311 147
64.524 158
64.736 166
64.949 146
65.162 147
65.374 162
65.587 156
65.800 179
66.012 164
66.225 147
66.438 166
66.650 161
66.863 170
67.076 170
67.288 158
67.501 174
67.714 176
67.926 147
68.139 168
68.352 175
68.564 178
68.777 164
68.990 152
69.202 175
69.415 180
69.628 175
69.840 176
70.053 162
70.266 153
70.478 128
70.691 179
70.904 156
71.116 171
71.329 209
71.542 186
71.754 174
71.967 191
72.180 206
72.392 212
72.605 198
72.817 194
73.030 223
73.243 206
73.455 226
73.668 213
73.881 212
74.093 230
74.306 211
74.519 254
74.731 245
74.944 255
75.157 211
75.369 219
75.582 217
75.795 184
76.007 191
76.220 171
76.433 194
76.645 188
76.858 170
77.071 194
77.283 223
77.496 168
77.709 198
77.921 175
78.134 189
78.347 177
78.559 163
78.772 175
78.985 185
79.197 172
79.410 159
79.623 189
79.835 172
80.048 156
80.261 167
80.473 178
80.686 170
80.899 167
81.111 174
81.324 173
81.537 178
81.749 178
81.962 151
82.175 161
82.387 176
82.600 162
82.813 189
83.025 165
83.238 185
83.451 205
83.663 169
83.876 213
84.089 197
84.301 188
84.514 200
